Time (ms)	Voltage (V)	Voltage (V)	Voltage (V)	Output Voltage (V)	Output Current (A)
0	0.669	1.211	-0.962	0.962	0.068
0.075	0.742	1.235	-0.942	1.084	0.076
0.15	0.82	1.265	-0.918	1.211	0.084
0.225	0.898	1.284	-0.894	1.333	0.091
0.3	0.967	1.304	-0.864	1.455	0.099
0.375	1.04	1.323	-0.84	1.572	0.106
0.45	1.113	1.328	-0.811	1.685	0.113
0.525	1.177	1.348	-0.776	1.797	0.12
0.6	1.25	1.353	-0.747	1.904	0.126
0.675	1.309	1.357	-0.713	2.007	0.132
0.75	1.367	1.362	-0.679	2.104	0.138
0.825	1.426	1.357	-0.64	2.202	0.144
0.9	1.479	1.362	-0.601	2.29	0.149
0.975	1.533	1.353	-0.562	2.373	0.155
1.05	1.582	1.338	-0.518	2.456	0.159
1.125	1.621	1.333	-0.479	2.529	0.164
1.2	1.67	1.318	-0.435	2.603	0.168
1.275	1.704	1.304	-0.391	2.666	0.172
1.35	1.738	1.279	-0.352	2.725	0.175
1.425	1.772	1.255	-0.298	2.778	0.178
1.5	1.797	1.24	-0.254	2.827	0.181
1.575	1.821	1.211	-0.215	2.871	0.183
1.65	1.841	1.172	-0.161	2.905	0.185
1.725	1.86	1.147	-0.117	2.935	0.187
1.8	1.87	1.113	-0.068	2.964	0.188
1.875	1.88	1.074	-0.02	2.979	0.189
1.95	1.885	1.035	0.024	2.993	0.189
2.025	1.885	0.996	0.073	2.998	0.189
2.1	1.88	0.957	0.122	2.998	0.189
2.175	1.875	0.908	0.166	2.993	0.188
2.25	1.865	0.859	0.215	2.979	0.187
2.325	1.851	0.811	0.259	2.964	0.185
2.4	1.831	0.762	0.303	2.939	0.183
2.475	1.812	0.708	0.352	2.905	0.181
2.55	1.787	0.654	0.396	2.871	0.178
2.625	1.753	0.605	0.439	2.832	0.175
2.7	1.724	0.547	0.479	2.783	0.172
2.775	1.689	0.483	0.522	2.729	0.168
2.85	1.646	0.435	0.562	2.666	0.164
2.925	1.602	0.371	0.601	2.607	0.16
3	1.553	0.312	0.645	2.534	0.155
3.075	1.504	0.254	0.674	2.461	0.15
3.15	1.455	0.19	0.713	2.383	0.145
3.225	1.396	0.132	0.747	2.295	0.139
3.3	1.338	0.068	0.776	2.207	0.133
3.375	1.279	0	0.811	2.109	0.127
3.45	1.211	-0.054	0.835	2.012	0.121
3.525	1.147	-0.117	0.864	1.909	0.114
3.6	1.079	-0.181	0.894	1.802	0.107
3.675	1.006	-0.239	0.913	1.694	0.1
3.75	0.933	-0.298	0.937	1.582	0.092
3.825	0.859	-0.361	0.957	1.46	0.085
3.9	0.781	-0.42	0.972	1.343	0.077
3.975	0.703	-0.479	0.991	1.216	0.069
4.05	0.625	-0.537	1.001	1.094	0.061
4.125	0.542	-0.591	1.016	0.967	0.053
4.2	0.454	-0.645	1.025	0.835	0.045
4.275	0.376	-0.703	1.035	0.708	0.036
4.35	0.293	-0.757	1.04	0.571	0.028
4.425	0.205	-0.801	1.04	0.439	0.02
4.5	0.122	-0.854	1.045	0.308	0.011
4.575	0.039	-0.898	1.045	0.166	0.002
4.65	-0.049	-0.947	1.035	0.034	-0.006
4.725	-0.137	-0.991	1.035	-0.103	-0.015
4.8	-0.22	-1.03	1.03	-0.239	-0.023
4.875	-0.303	-1.069	1.016	-0.371	-0.031
4.95	-0.386	-1.113	1.006	-0.508	-0.04
5.025	-0.469	-1.143	0.991	-0.64	-0.048
5.1	-0.552	-1.182	0.977	-0.771	-0.057
5.175	-0.64	-1.206	0.957	-0.903	-0.065
5.25	-0.713	-1.23	0.937	-1.03	-0.073
5.325	-0.796	-1.26	0.923	-1.157	-0.081
5.4	-0.869	-1.284	0.894	-1.284	-0.088
5.475	-0.942	-1.309	0.869	-1.401	-0.096
5.55	-1.016	-1.323	0.845	-1.523	-0.103
5.625	-1.089	-1.333	0.811	-1.641	-0.11
5.7	-1.157	-1.353	0.786	-1.748	-0.117
5.775	-1.226	-1.362	0.752	-1.86	-0.123
5.85	-1.289	-1.362	0.718	-1.963	-0.13
5.925	-1.353	-1.367	0.684	-2.065	-0.136
6	-1.406	-1.372	0.649	-2.158	-0.142
6.075	-1.465	-1.362	0.605	-2.256	-0.147
6.15	-1.519	-1.362	0.566	-2.339	-0.153
6.225	-1.562	-1.362	0.532	-2.417	-0.157
6.3	-1.616	-1.338	0.488	-2.5	-0.162
6.375	-1.655	-1.333	0.439	-2.568	-0.166
6.45	-1.694	-1.323	0.405	-2.637	-0.17
6.525	-1.738	-1.294	0.356	-2.705	-0.174
6.6	-1.763	-1.279	0.312	-2.754	-0.177
6.675	-1.792	-1.26	0.273	-2.808	-0.179
6.75	-1.821	-1.221	0.215	-2.856	-0.182
6.825	-1.841	-1.201	0.176	-2.891	-0.184
6.9	-1.86	-1.172	0.132	-2.93	-0.186
6.975	-1.875	-1.128	0.078	-2.954	-0.187
7.05	-1.885	-1.104	0.034	-2.969	-0.188
7.125	-1.89	-1.064	-0.015	-2.988	-0.189
7.2	-1.895	-1.016	-0.068	-2.998	-0.189
7.275	-1.895	-0.986	-0.107	-2.998	-0.189
7.35	-1.885	-0.933	-0.156	-2.998	-0.188
7.425	-1.88	-0.884	-0.205	-2.988	-0.188
7.5	-1.865	-0.85	-0.249	-2.974	-0.186
7.575	-1.851	-0.791	-0.293	-2.949	-0.184
7.65	-1.831	-0.737	-0.342	-2.925	-0.182
7.725	-1.802	-0.693	-0.386	-2.891	-0.179
7.8	-1.777	-0.63	-0.43	-2.852	-0.177
7.875	-1.748	-0.576	-0.474	-2.808	-0.174
7.95	-1.709	-0.527	-0.513	-2.754	-0.17
8.025	-1.675	-0.459	-0.557	-2.7	-0.166
8.1	-1.626	-0.41	-0.596	-2.637	-0.162
8.175	-1.582	-0.352	-0.63	-2.568	-0.157
8.25	-1.538	-0.278	-0.674	-2.5	-0.153
8.325	-1.484	-0.229	-0.703	-2.417	-0.147
8.4	-1.431	-0.166	-0.737	-2.334	-0.142
8.475	-1.377	-0.098	-0.776	-2.246	-0.136
8.55	-1.309	-0.049	-0.806	-2.153	-0.13
8.625	-1.25	0.024	-0.835	-2.061	-0.124
8.7	-1.182	0.083	-0.869	-1.953	-0.117
8.775	-1.113	0.137	-0.889	-1.851	-0.11
8.85	-1.05	0.21	-0.918	-1.748	-0.103
8.925	-0.972	0.259	-0.937	-1.631	-0.096
9	-0.898	0.322	-0.957	-1.514	-0.088
9.075	-0.82	0.381	-0.977	-1.396	-0.081
9.15	-0.747	0.449	-0.996	-1.274	-0.073
9.225	-0.669	0.508	-1.011	-1.152	-0.065
9.3	-0.581	0.557	-1.021	-1.025	-0.057
9.375	-0.508	0.615	-1.03	-0.898	-0.049
9.45	-0.42	0.669	-1.04	-0.767	-0.04
9.525	-0.337	0.723	-1.05	-0.635	-0.032
9.6	-0.254	0.771	-1.05	-0.503	-0.023
9.675	-0.171	0.825	-1.055	-0.366	-0.015
9.75	-0.083	0.869	-1.055	-0.229	-0.006
9.825	0	0.923	-1.05	-0.098	0.002
9.9	0.088	0.962	-1.045	0.039	0.011
9.975	0.171	1.006	-1.04	0.176	0.019
10.05	0.259	1.045	-1.035	0.312	0.028
10.125	0.342	1.084	-1.025	0.449	0.036
10.2	0.425	1.123	-1.006	0.576	0.045
10.275	0.508	1.152	-0.996	0.713	0.053
10.35	0.591	1.187	-0.977	0.845	0.061
10.425	0.674	1.221	-0.962	0.972	0.069
10.5	0.752	1.24	-0.937	1.104	0.077
10.575	0.825	1.27	-0.913	1.221	0.085
10.65	0.903	1.289	-0.894	1.348	0.092
10.725	0.977	1.304	-0.864	1.47	0.1
10.8	1.05	1.328	-0.84	1.582	0.107
10.875	1.123	1.333	-0.806	1.699	0.114
10.95	1.187	1.343	-0.771	1.807	0.121
11.025	1.25	1.357	-0.742	1.914	0.127
11.1	1.313	1.357	-0.708	2.017	0.133
11.175	1.372	1.362	-0.669	2.114	0.139
11.25	1.436	1.357	-0.635	2.212	0.145
11.325	1.484	1.357	-0.596	2.3	0.15
11.4	1.538	1.353	-0.557	2.383	0.155
11.475	1.582	1.338	-0.518	2.466	0.16
11.55	1.631	1.328	-0.469	2.539	0.164
11.625	1.67	1.318	-0.43	2.607	0.168
11.7	1.704	1.299	-0.386	2.676	0.172
11.775	1.743	1.279	-0.342	2.729	0.175
11.85	1.777	1.255	-0.293	2.783	0.178
11.925	1.797	1.235	-0.249	2.832	0.181
12	1.826	1.206	-0.205	2.876	0.183
12.075	1.846	1.172	-0.156	2.91	0.185
12.15	1.86	1.143	-0.112	2.939	0.187
12.225	1.875	1.104	-0.063	2.964	0.188
12.3	1.875	1.074	-0.015	2.979	0.189
12.375	1.885	1.03	0.029	2.993	0.189
12.45	1.885	0.986	0.078	2.998	0.189
12.525	1.88	0.947	0.127	2.998	0.188
12.6	1.875	0.903	0.171	2.993	0.188
12.675	1.86	0.854	0.22	2.979	0.187
12.75	1.851	0.806	0.264	2.959	0.185
12.825	1.826	0.757	0.312	2.935	0.183
12.9	1.807	0.703	0.356	2.9	0.181
12.975	1.782	0.645	0.4	2.866	0.178
13.05	1.748	0.596	0.444	2.822	0.175
13.125	1.719	0.542	0.483	2.778	0.172
13.2	1.685	0.479	0.527	2.725	0.168
13.275	1.641	0.425	0.566	2.661	0.164
13.35	1.597	0.366	0.605	2.598	0.159
13.425	1.548	0.303	0.645	2.524	0.155
13.5	1.504	0.244	0.684	2.451	0.15
13.575	1.45	0.181	0.718	2.373	0.144
13.65	1.387	0.122	0.752	2.285	0.138
13.725	1.333	0.059	0.781	2.192	0.133
13.8	1.27	0	0.811	2.1	0.126
13.875	1.206	-0.063	0.84	2.002	0.12
13.95	1.138	-0.127	0.869	1.899	0.113
14.025	1.069	-0.186	0.894	1.787	0.106
14.1	1.001	-0.244	0.913	1.68	0.099
14.175	0.928	-0.308	0.942	1.567	0.092
14.25	0.85	-0.366	0.962	1.445	0.084
14.325	0.771	-0.425	0.977	1.328	0.076
14.4	0.693	-0.488	0.996	1.206	0.068
14.475	0.615	-0.542	1.006	1.079	0.06
14.55	0.532	-0.601	1.016	0.952	0.052
14.625	0.449	-0.654	1.025	0.82	0.044
14.7	0.366	-0.708	1.035	0.688	0.035
14.775	0.278	-0.762	1.04	0.557	0.027
14.85	0.195	-0.811	1.045	0.42	0.019
14.925	0.112	-0.859	1.045	0.288	0.01
15	0.024	-0.903	1.045	0.156	0.001
15.075	-0.059	-0.952	1.04	0.02	-0.007
15.15	-0.146	-0.996	1.035	-0.117	-0.016
15.225	-0.229	-1.035	1.025	-0.254	-0.024
15.3	-0.312	-1.084	1.016	-0.386	-0.033
15.375	-0.4	-1.113	1.006	-0.522	-0.041
15.45	-0.479	-1.147	0.991	-0.654	-0.049
15.525	-0.562	-1.182	0.977	-0.786	-0.058
15.6	-0.645	-1.206	0.957	-0.918	-0.066
15.675	-0.723	-1.24	0.937	-1.045	-0.073
15.75	-0.806	-1.26	0.913	-1.172	-0.082
15.825	-0.874	-1.289	0.894	-1.299	-0.089
15.9	-0.952	-1.309	0.864	-1.416	-0.097
15.975	-1.03	-1.318	0.84	-1.538	-0.104
16.05	-1.094	-1.343	0.811	-1.65	-0.111
16.125	-1.167	-1.348	0.781	-1.763	-0.117
16.2	-1.235	-1.353	0.742	-1.87	-0.124
16.275	-1.294	-1.367	0.713	-1.973	-0.13
16.35	-1.357	-1.367	0.679	-2.08	-0.136
16.425	-1.416	-1.367	0.635	-2.173	-0.142
16.5	-1.47	-1.377	0.605	-2.261	-0.148
16.575	-1.523	-1.362	0.566	-2.354	-0.153
16.65	-1.572	-1.353	0.518	-2.432	-0.158
16.725	-1.621	-1.348	0.483	-2.51	-0.162
16.8	-1.66	-1.328	0.439	-2.583	-0.167
16.875	-1.704	-1.313	0.396	-2.646	-0.171
16.95	-1.733	-1.304	0.356	-2.705	-0.174
17.025	-1.768	-1.274	0.308	-2.764	-0.177
17.1	-1.797	-1.245	0.259	-2.813	-0.18
17.175	-1.821	-1.23	0.215	-2.856	-0.182
17.25	-1.846	-1.196	0.171	-2.896	-0.184
17.325	-1.865	-1.162	0.117	-2.93	-0.186
17.4	-1.87	-1.138	0.078	-2.954	-0.187
17.475	-1.89	-1.094	0.029	-2.979	-0.188
17.55	-1.895	-1.055	-0.024	-2.988	-0.189
17.625	-1.89	-1.025	-0.063	-2.998	-0.189
17.7	-1.895	-0.967	-0.117	-3.003	-0.189
17.775	-1.885	-0.933	-0.166	-2.993	-0.188
17.85	-1.875	-0.889	-0.205	-2.988	-0.187
17.925	-1.865	-0.83	-0.259	-2.974	-0.186
18	-1.846	-0.791	-0.303	-2.944	-0.184
18.075	-1.826	-0.737	-0.342	-2.92	-0.182
18.15	-1.802	-0.674	-0.391	-2.886	-0.179
18.225	-1.768	-0.635	-0.43	-2.842	-0.177
18.3	-1.743	-0.566	-0.474	-2.803	-0.173
18.375	-1.709	-0.513	-0.522	-2.749	-0.17
18.45	-1.665	-0.464	-0.557	-2.69	-0.166
18.525	-1.626	-0.391	-0.601	-2.632	-0.161
18.6	-1.582	-0.342	-0.64	-2.559	-0.157
18.675	-1.533	-0.283	-0.674	-2.49	-0.152
18.75	-1.479	-0.21	-0.718	-2.407	-0.146
18.825	-1.421	-0.161	-0.742	-2.324	-0.141
18.9	-1.367	-0.093	-0.776	-2.241	-0.135
18.975	-1.309	-0.029	-0.815	-2.144	-0.129
19.05	-1.24	0.02	-0.835	-2.046	-0.123
19.125	-1.177	0.093	-0.869	-1.948	-0.116
19.2	-1.108	0.151	-0.894	-1.836	-0.109
19.275	-1.035	0.21	-0.913	-1.733	-0.102
19.35	-0.967	0.273	-0.942	-1.621	-0.095
19.425	-0.894	0.337	-0.962	-1.499	-0.087
19.5	-0.815	0.396	-0.981	-1.382	-0.08
19.575	-0.737	0.444	-0.996	-1.26	-0.072
19.65	-0.659	0.508	-1.006	-1.138	-0.064
19.725	-0.576	0.566	-1.025	-1.011	-0.056
19.8	-0.493	0.615	-1.03	-0.879	-0.048
19.875	-0.41	0.679	-1.04	-0.752	-0.039
19.95	-0.327	0.728	-1.05	-0.62	-0.031
20.025	-0.244	0.781	-1.05	-0.488	-0.022
20.1	-0.156	0.83	-1.055	-0.352	-0.014
20.175	-0.073	0.879	-1.055	-0.215	-0.005
20.25	0.015	0.923	-1.05	-0.083	0.003
20.325	0.098	0.967	-1.05	0.059	0.012
20.4	0.181	1.011	-1.04	0.19	0.02
20.475	0.269	1.05	-1.035	0.327	0.029
20.55	0.352	1.084	-1.021	0.464	0.037
20.625	0.435	1.128	-1.006	0.596	0.045
20.7	0.518	1.157	-0.991	0.728	0.054
20.775	0.596	1.191	-0.977	0.859	0.062
20.85	0.684	1.216	-0.957	0.986	0.07
20.925	0.762	1.245	-0.937	1.118	0.078
21	0.835	1.27	-0.913	1.24	0.085
21.075	0.913	1.289	-0.889	1.362	0.093
21.15	0.986	1.309	-0.859	1.484	0.1
21.225	1.06	1.323	-0.835	1.597	0.107
21.3	1.133	1.338	-0.801	1.714	0.115
21.375	1.191	1.348	-0.771	1.821	0.121
21.45	1.26	1.353	-0.742	1.929	0.128
21.525	1.323	1.357	-0.698	2.031	0.134
21.6	1.382	1.367	-0.669	2.124	0.14
21.675	1.436	1.362	-0.635	2.222	0.145
21.75	1.489	1.353	-0.586	2.31	0.151
21.825	1.543	1.348	-0.552	2.393	0.156
21.9	1.592	1.338	-0.513	2.476	0.16
21.975	1.636	1.333	-0.469	2.549	0.165
22.05	1.68	1.313	-0.425	2.617	0.169
22.125	1.709	1.299	-0.381	2.681	0.172
22.2	1.748	1.279	-0.337	2.739	0.176
22.275	1.777	1.255	-0.293	2.793	0.179
22.35	1.802	1.23	-0.244	2.837	0.181
22.425	1.826	1.201	-0.2	2.881	0.184
22.5	1.846	1.172	-0.151	2.915	0.185
22.575	1.86	1.143	-0.107	2.944	0.187
22.65	1.875	1.099	-0.059	2.969	0.188
22.725	1.88	1.064	-0.01	2.979	0.189
22.8	1.885	1.025	0.034	2.993	0.189
22.875	1.885	0.986	0.083	2.998	0.189
22.95	1.885	0.942	0.132	2.993	0.188
23.025	1.875	0.898	0.176	2.988	0.188
23.1	1.855	0.85	0.225	2.979	0.186
23.175	1.846	0.801	0.269	2.959	0.185
23.25	1.826	0.747	0.317	2.935	0.183
23.325	1.802	0.698	0.361	2.9	0.18
23.4	1.777	0.645	0.4	2.861	0.178
23.475	1.748	0.591	0.449	2.817	0.175
23.55	1.714	0.532	0.488	2.769	0.171
23.625	1.68	0.474	0.532	2.715	0.167
23.7	1.631	0.42	0.571	2.656	0.163
23.775	1.597	0.356	0.61	2.593	0.159
23.85	1.543	0.293	0.649	2.515	0.154
23.925	1.494	0.239	0.684	2.441	0.149
24	1.445	0.176	0.718	2.363	0.144
24.075	1.382	0.117	0.757	2.275	0.138
24.15	1.328	0.054	0.786	2.188	0.132
24.225	1.26	-0.01	0.815	2.09	0.125
24.3	1.196	-0.068	0.845	1.987	0.119
24.375	1.133	-0.137	0.874	1.885	0.112
24.45	1.06	-0.19	0.898	1.777	0.105
24.525	0.991	-0.254	0.918	1.665	0.098
24.6	0.918	-0.312	0.942	1.553	0.091
24.675	0.835	-0.371	0.962	1.431	0.083
24.75	0.762	-0.435	0.977	1.313	0.075
24.825	0.684	-0.493	0.996	1.187	0.067
24.9	0.605	-0.547	1.006	1.064	0.059
24.975	0.522	-0.605	1.021	0.937	0.051
25.05	0.439	-0.659	1.03	0.806	0.043
25.125	0.356	-0.713	1.035	0.674	0.034
25.2	0.273	-0.767	1.04	0.542	0.026
25.275	0.186	-0.815	1.045	0.405	0.018
25.35	0.103	-0.869	1.045	0.273	0.009
25.425	0.015	-0.908	1.045	0.137	4.88E-04
25.5	-0.068	-0.957	1.035	-0.015	-0.008
25.575	-0.151	-1.006	1.035	-0.132	-0.017
25.65	-0.244	-1.04	1.025	-0.273	-0.025
25.725	-0.322	-1.079	1.016	-0.405	-0.034
25.8	-0.41	-1.118	1.006	-0.537	-0.042
25.875	-0.493	-1.147	0.986	-0.674	-0.05
25.95	-0.571	-1.182	0.977	-0.801	-0.058
26.025	-0.654	-1.211	0.957	-0.933	-0.067
26.1	-0.732	-1.245	0.937	-1.06	-0.074
26.175	-0.815	-1.265	0.913	-1.187	-0.083
26.25	-0.889	-1.289	0.884	-1.313	-0.09
26.325	-0.962	-1.309	0.864	-1.431	-0.097
26.4	-1.04	-1.318	0.835	-1.553	-0.104
26.475	-1.104	-1.338	0.801	-1.66	-0.112
26.55	-1.172	-1.357	0.781	-1.772	-0.118
26.625	-1.24	-1.357	0.742	-1.885	-0.125
26.7	-1.304	-1.367	0.708	-1.982	-0.131
26.775	-1.362	-1.377	0.679	-2.085	-0.137
26.85	-1.421	-1.362	0.635	-2.183	-0.143
26.925	-1.475	-1.367	0.596	-2.271	-0.148
27	-1.528	-1.367	0.562	-2.358	-0.153
27.075	-1.577	-1.348	0.518	-2.441	-0.158
27.15	-1.626	-1.343	0.479	-2.52	-0.163
27.225	-1.66	-1.338	0.435	-2.588	-0.167
27.3	-1.709	-1.309	0.391	-2.656	-0.171
27.375	-1.743	-1.294	0.347	-2.715	-0.175
27.45	-1.768	-1.279	0.303	-2.769	-0.177
27.525	-1.807	-1.245	0.254	-2.822	-0.18
27.6	-1.826	-1.221	0.205	-2.861	-0.183
27.675	-1.841	-1.201	0.166	-2.9	-0.185
27.75	-1.865	-1.152	0.117	-2.935	-0.186
27.825	-1.875	-1.128	0.068	-2.954	-0.188
